File: tensile_non_linear2.csv
-0,
-0,
1.27827,
0.227333,
0.218161,
0.218161,
0.218161,
0.218161,
0.399064,
0.399064,
0.399064,
0.384141,